BITPIX  =                    8  /  8-bit ASCII characters                       
NAXIS   =                    1  /  Number of Image Dimensions                   
NAXIS1  =                 2700  /  Length of axis                               
ORIGIN  = 'NOAO-IRAF: WTEXTIMAGE'  /
IRAF-MAX=                   0.  /  Max image pixel (out of date)                
IRAF-MIN=                   0.  /  Min image pixel (out of date)                
IRAF-B/P=                   32  /  Image bits per pixel                         
IRAFTYPE= 'REAL FLOATING     '  /  Image datatype                              
OBJECT  = 'SN1994D UT 4/12/94 80MIN'  /
FILENAME= 'CTIO_40_12APR94   '  /  IRAF filename                               
FORMAT  = '5G14.7            '  /  Text line format                            
EXTEND  =                    F / File may contain extensions                    
ORIGIN  = 'NOAO-IRAF FITS Image Kernel July 2003' / FITS file originator        
DATE    = '2024-04-28T22:46:24' / Date FITS file was generated                  
IRAF-TLM= '2024-04-28T22:46:24' / Time of last modification                     
OBJECT  = 'SN1994D UT 4/12/94 80MIN' / Name of the object observed              
IRAF-MAX=                   0.  /  Max image pixel (out of date)                
IRAF-MIN=                   0.  /  Min image pixel (out of date)                
IRAF-B/P=                   32  /  Image bits per pixel                         
FILENAME= 'WSN94D.N3         '  /  IRAF filename                                
IRAF-MAX=                 523.  /  Max image pixel (out of date)                
IRAF-MIN=                   0.  /  Min image pixel (out of date)                
IRAF-B/P=                   32  /  Image bits per pixel                         
FILENAME= 'SN94D.N3          '  /  IRAF filename                                
IRAF-MAX=           0.000000E0  /  DATA MAX                                     
IRAF-MIN=           0.000000E0  /  DATA MIN                                     
OBSERVAT= 'CTIO              ' / ORIGIN OF DATA                                 
CCDPICNO=                   15 / ORIGINAL CCD PICTURE NUMBER                    
EXPTIME =                 1200 / ACTUAL INTEGRATION TIME (SECONDS)              
DARKTIME=                 1200 / TOTAL ELAPSED TIME (SECONDS)                   
OTIME   =                 1200 / SHUTTER OPEN TIME (SECONDS)                    
IMAGETYP= 'OBJECT            ' / OBJECT,DARK,BIAS,ETC.                          
DATE-OBS= '12/04/94          ' / DATE (DD/MM/YY) OF OBSERVATION                 
RA      = '12:33:45.00'         /  RIGHT ASCENSION (TELESCOPE)                  
DEC     = ' 7:44:21.00'         /  DECLINATION (TELESCOPE)                      
EPOCH   =                1994. / EPOCH OF RA AND DEC                            
ZD      = ' 0:00:38.00'         /  ZENITH DISTANCE                              
HA      = '00:09:42          ' / HOUR ANGLE (H-M-S)                             
UT      = ' 4:06:11.00'         /  UNIVERSAL TIME                               
ST      = '12:43:31.00'         /  SIDEREAL TIME                                
AIRMASS =                1.267 / AIRMASS                                        
DETECTOR= '2D-Frutti         ' / DETECTOR (CCD TYPE, PHOTON COUNTER, ETC)       
CAMTEMP =                   0. / CAMERA TEMPERATURE, DEG C                      
DEWTEMP =                   0. / DEWAR TEMPRATURE, DEG C                        
FILTERS = '0 0               ' / FILTER BOLT POSITIONS                          
TRIMSEC = '[1:256,1:3040]    ' / TRIMMED AREA IN RAW FRAME                      
DATASEC = '[1:256,1:3040]    ' / IMAGE AREA IN RAW FRAME                        
CCDSUM  = '8 1               ' / ON CHIP SUMMATION (X,Y)                        
VEBGAIN =                   30 / VEB GAIN SETTING                               
SECPPIX =                   1. / SEC OF ARC PER PIXEL                           
WCSDIM  =                    1                                                  
CTYPE1  = 'LINEAR  '                                                            
CDELT1  =                1.238                                                  
CD1_1   =                1.238                                                  
LTM1_1  =                   1.                                                  
WAT0_001= 'system=equispec                                                     '
WAT1_001= 'wtype=linear label=Wavelength units=Angstroms                       '
CRVAL1  =                3655.                                                  
CRPIX1  =                   1.                                                  
EX-FLAG =                    0                                                  
CA-FLAG =                    0                                                  
APNUM1  = '1 1 116.02 134.07'                                                   
DC-FLAG =                    0                                                  
DCLOG1  = 'REFSPEC1 = disp3c'                                                   
END                                                                             
                                                                                
                                                                                
                                                                                
                                                                                
                                                                                
3655.  0.
3656.238  0.
3657.476  0.
3658.714  0.
3659.952  0.
3661.19  0.
3662.428  0.
3663.666  0.
3664.904  0.
3666.142  0.
3667.38  0.
3668.618  0.
3669.856  0.
3671.094  0.
3672.332  0.
3673.57  0.
3674.808  0.
3676.046  0.
3677.284  0.
3678.522  0.
3679.76  0.
3680.998  0.
3682.236  0.
3683.474  0.
3684.712  0.
3685.95  0.
3687.188  0.
3688.426  0.
3689.664  0.
3690.902  0.
3692.14  0.
3693.378  0.
3694.616  0.
3695.854  0.
3697.092  0.
3698.33  0.
3699.568  0.
3700.806  0.
3702.044  0.
3703.282  0.
3704.52  0.
3705.758  0.
3706.996  0.
3708.234  0.
3709.472  0.
3710.71  0.
3711.948  0.
3713.186  0.
3714.424  0.
3715.662  0.
3716.9  0.
3718.138  0.
3719.376  0.
3720.614  0.
3721.852  0.
3723.09  0.
3724.328  0.
3725.566  0.
3726.804  0.
3728.042  0.
3729.28  0.
3730.518  0.
3731.756  0.
3732.994  0.
3734.232  0.
3735.47  0.
3736.708  0.
3737.946  0.
3739.184  0.
3740.422  0.
3741.66  0.
3742.898  0.
3744.136  0.
3745.374  0.
3746.612  0.
3747.85  0.
3749.088  0.
3750.326  0.
3751.564  0.
3752.802  0.
3754.04  0.
3755.278  0.
3756.516  0.
3757.754  0.
3758.992  0.
3760.23  0.
3761.468  0.
3762.706  0.
3763.944  0.
3765.182  0.
3766.42  0.
3767.658  0.
3768.896  3.610740E-15
3770.134  1.400869E-14
3771.372  1.538009E-14
3772.61  1.488947E-14
3773.848  1.568313E-14
3775.086  1.407124E-14
3776.324  1.491146E-14
3777.562  1.391815E-14
3778.8  1.360062E-14
3780.038  1.243604E-14
3781.276  1.234952E-14
3782.514  1.311247E-14
3783.752  1.207997E-14
3784.99  1.235051E-14
3786.228  1.243062E-14
3787.466  1.288339E-14
3788.704  1.233670E-14
3789.942  1.194891E-14
3791.18  1.125873E-14
3792.418  1.161775E-14
3793.656  1.173685E-14
3794.894  1.246668E-14
3796.132  1.037955E-14
3797.37  1.085642E-14
3798.608  1.077577E-14
3799.846  1.007444E-14
3801.084  1.042232E-14
3802.322  9.850292E-15
3803.56  8.789920E-15
3804.798  9.376438E-15
3806.036  8.880790E-15
3807.274  8.915245E-15
3808.512  8.306746E-15
3809.75  7.928259E-15
3810.988  9.095077E-15
3812.226  9.101704E-15
3813.464  8.610765E-15
3814.702  7.098818E-15
3815.94  7.604544E-15
3817.178  8.625442E-15
3818.416  8.901338E-15
3819.654  8.283418E-15
3820.892  8.126554E-15
3822.13  8.342373E-15
3823.368  8.076302E-15
3824.606  7.742254E-15
3825.844  7.297747E-15
3827.082  7.185202E-15
3828.32  8.112358E-15
3829.558  7.276675E-15
3830.796  7.146771E-15
3832.034  7.920289E-15
3833.272  7.544321E-15
3834.51  7.153180E-15
3835.748  7.390164E-15
3836.986  6.955747E-15
3838.224  6.647353E-15
3839.462  7.443500E-15
3840.7  7.596146E-15
3841.938  6.965774E-15
3843.176  6.977524E-15
3844.414  7.696730E-15
3845.652  8.572129E-15
3846.89  7.691992E-15
3848.128  7.443011E-15
3849.366  8.629678E-15
3850.604  8.279279E-15
3851.842  8.028474E-15
3853.08  8.285490E-15
3854.318  7.755942E-15
3855.556  8.259346E-15
3856.794  9.062907E-15
3858.032  9.220117E-15
3859.27  9.551130E-15
3860.508  9.589318E-15
3861.746  9.179367E-15
3862.984  9.552766E-15
3864.222  9.128653E-15
3865.46  8.783478E-15
3866.698  9.773214E-15
3867.936  9.426070E-15
3869.174  9.171649E-15
3870.412  9.528963E-15
3871.65  9.779577E-15
3872.888  9.840852E-15
3874.126  9.770700E-15
3875.364  9.578300E-15
3876.602  9.908437E-15
3877.84  9.441380E-15
3879.078  9.416051E-15
3880.316  9.257603E-15
3881.554  9.108919E-15
3882.792  1.060124E-14
3884.03  1.043461E-14
3885.268  9.578039E-15
3886.506  1.029600E-14
3887.744  1.034695E-14
3888.982  9.422537E-15
3890.22  9.277526E-15
3891.458  9.575253E-15
3892.696  9.092196E-15
3893.934  9.077660E-15
3895.172  9.994354E-15
3896.41  9.651895E-15
3897.648  9.723775E-15
3898.886  9.712062E-15
3900.124  9.862769E-15
3901.362  1.011754E-14
3902.6  9.947912E-15
3903.838  1.036879E-14
3905.076  1.106537E-14
3906.314  1.108606E-14
3907.552  9.835550E-15
3908.79  1.056563E-14
3910.028  1.132054E-14
3911.266  1.180395E-14
3912.504  1.177283E-14
3913.742  1.144574E-14
3914.98  1.177249E-14
3916.218  1.107988E-14
3917.456  1.116930E-14
3918.694  1.114594E-14
3919.932  1.123321E-14
3921.17  1.199546E-14
3922.408  1.172987E-14
3923.646  1.211034E-14
3924.884  1.196685E-14
3926.122  1.171450E-14
3927.36  1.173225E-14
3928.598  1.183276E-14
3929.836  1.149453E-14
3931.074  1.045839E-14
3932.312  1.060122E-14
3933.55  1.108341E-14
3934.788  1.111463E-14
3936.026  1.180861E-14
3937.264  1.133351E-14
3938.502  1.089762E-14
3939.74  1.063690E-14
3940.978  1.025120E-14
3942.216  1.014397E-14
3943.454  1.029202E-14
3944.692  1.088898E-14
3945.93  1.142267E-14
3947.168  1.123884E-14
3948.406  1.117530E-14
3949.644  1.177385E-14
3950.882  1.188311E-14
3952.12  1.201308E-14
3953.358  1.216651E-14
3954.596  1.245755E-14
3955.834  1.237265E-14
3957.072  1.258401E-14
3958.31  1.285197E-14
3959.548  1.240332E-14
3960.786  1.327023E-14
3962.024  1.278596E-14
3963.262  1.263407E-14
3964.5  1.286554E-14
3965.738  1.208355E-14
3966.976  1.249430E-14
3968.214  1.268229E-14
3969.452  1.226212E-14
3970.69  1.258909E-14
3971.928  1.260064E-14
3973.166  1.256762E-14
3974.404  1.189883E-14
3975.642  1.121983E-14
3976.88  1.134385E-14
3978.118  1.182926E-14
3979.356  1.151083E-14
3980.594  1.212506E-14
3981.832  1.243778E-14
3983.07  1.195422E-14
3984.308  1.278078E-14
3985.546  1.258152E-14
3986.784  1.172694E-14
3988.022  1.206635E-14
3989.26  1.186098E-14
3990.498  1.218504E-14
3991.736  1.277810E-14
3992.974  1.261361E-14
3994.212  1.243823E-14
3995.45  1.180046E-14
3996.688  1.222556E-14
3997.926  1.280477E-14
3999.164  1.247807E-14
4000.402  1.185512E-14
4001.64  1.281954E-14
4002.878  1.271193E-14
4004.116  1.212942E-14
4005.354  1.249610E-14
4006.592  1.228446E-14
4007.83  1.243306E-14
4009.068  1.233268E-14
4010.306  1.173201E-14
4011.544  1.217771E-14
4012.782  1.244667E-14
4014.02  1.192894E-14
4015.258  1.220777E-14
4016.496  1.251780E-14
4017.734  1.180942E-14
4018.972  1.131935E-14
4020.21  1.167480E-14
4021.448  1.097338E-14
4022.686  1.098681E-14
4023.924  1.108004E-14
4025.162  1.179066E-14
4026.4  1.166188E-14
4027.638  1.109884E-14
4028.876  1.111972E-14
4030.114  1.122390E-14
4031.352  1.211515E-14
4032.59  1.198125E-14
4033.828  1.092919E-14
4035.066  1.140708E-14
4036.304  1.178116E-14
4037.542  1.160752E-14
4038.78  1.162855E-14
4040.018  1.155710E-14
4041.256  1.155781E-14
4042.494  1.137939E-14
4043.732  1.106771E-14
4044.97  1.136556E-14
4046.208  1.155604E-14
4047.446  1.149302E-14
4048.684  1.176702E-14
4049.922  1.161049E-14
4051.16  1.120249E-14
4052.398  1.199800E-14
4053.636  1.212366E-14
4054.874  1.125408E-14
4056.112  1.115620E-14
4057.35  1.133250E-14
4058.588  1.171165E-14
4059.826  1.147225E-14
4061.064  1.180302E-14
4062.302  1.208977E-14
4063.54  1.180375E-14
4064.778  1.216997E-14
4066.016  1.154670E-14
4067.254  1.083976E-14
4068.492  1.131275E-14
4069.73  1.173601E-14
4070.968  1.079857E-14
4072.206  1.055784E-14
4073.444  1.077267E-14
4074.682  1.069106E-14
4075.92  1.060650E-14
4077.158  1.056041E-14
4078.396  1.039243E-14
4079.634  1.009989E-14
4080.872  1.047556E-14
4082.11  1.085564E-14
4083.348  1.056484E-14
4084.586  1.063036E-14
4085.824  1.080668E-14
4087.062  1.049508E-14
4088.3  1.103184E-14
4089.538  1.131356E-14
4090.776  1.122258E-14
4092.014  1.107195E-14
4093.252  1.075238E-14
4094.49  1.075273E-14
4095.728  1.127689E-14
4096.966  1.101236E-14
4098.204  1.124773E-14
4099.442  1.153150E-14
4100.68  1.110003E-14
4101.918  1.106892E-14
4103.156  1.094461E-14
4104.394  1.062186E-14
4105.632  1.093513E-14
4106.87  1.078623E-14
4108.108  1.041810E-14
4109.346  1.077385E-14
4110.584  1.054813E-14
4111.822  1.001887E-14
4113.06  1.048369E-14
4114.298  1.034923E-14
4115.536  1.032337E-14
4116.774  1.041378E-14
4118.012  1.010090E-14
4119.25  9.914984E-15
4120.488  1.021755E-14
4121.726  1.058225E-14
4122.964  1.052745E-14
4124.202  1.046594E-14
4125.44  1.045509E-14
4126.678  1.011711E-14
4127.916  1.016630E-14
4129.154  1.060137E-14
4130.392  9.791675E-15
4131.63  9.651872E-15
4132.868  1.030825E-14
4134.106  1.066218E-14
4135.344  1.045123E-14
4136.582  9.862591E-15
4137.82  9.238571E-15
4139.058  9.275263E-15
4140.296  9.891594E-15
4141.534  1.004154E-14
4142.772  1.005571E-14
4144.01  9.888269E-15
4145.248  9.814721E-15
4146.486  9.991332E-15
4147.724  1.011542E-14
4148.962  9.837312E-15
4150.2  9.688968E-15
4151.438  9.882080E-15
4152.676  1.003120E-14
4153.914  9.760493E-15
4155.152  1.004306E-14
4156.39  1.035624E-14
4157.628  1.033934E-14
4158.866  1.014162E-14
4160.104  9.845298E-15
4161.342  1.017920E-14
4162.58  1.023261E-14
4163.818  1.027016E-14
4165.056  1.045861E-14
4166.294  1.067570E-14
4167.532  1.062469E-14
4168.77  1.057417E-14
4170.008  1.113957E-14
4171.246  1.122450E-14
4172.484  1.125997E-14
4173.722  1.128304E-14
4174.96  1.104766E-14
4176.198  1.099112E-14
4177.436  1.124432E-14
4178.674  1.100012E-14
4179.912  1.060415E-14
4181.15  1.096581E-14
4182.388  1.122354E-14
4183.626  1.110363E-14
4184.864  1.105794E-14
4186.102  1.088383E-14
4187.34  1.084978E-14
4188.578  1.121593E-14
4189.816  1.184862E-14
4191.054  1.129596E-14
4192.292  1.135906E-14
4193.53  1.118790E-14
4194.768  1.092569E-14
4196.006  1.126225E-14
4197.244  1.167904E-14
4198.482  1.160550E-14
4199.72  1.136723E-14
4200.958  1.117681E-14
4202.196  1.148494E-14
4203.434  1.179106E-14
4204.672  1.135559E-14
4205.91  1.101822E-14
4207.148  1.094208E-14
4208.386  1.100493E-14
4209.624  1.075033E-14
4210.862  1.061871E-14
4212.1  1.107366E-14
4213.338  1.108743E-14
4214.576  1.112562E-14
4215.814  1.195321E-14
4217.052  1.200177E-14
4218.29  1.177891E-14
4219.528  1.172706E-14
4220.766  1.142049E-14
4222.004  1.100336E-14
4223.242  1.125906E-14
4224.48  1.185083E-14
4225.718  1.193833E-14
4226.956  1.162793E-14
4228.194  1.133202E-14
4229.432  1.166598E-14
4230.67  1.182286E-14
4231.908  1.117152E-14
4233.146  1.147111E-14
4234.384  1.152278E-14
4235.622  1.103667E-14
4236.86  1.068679E-14
4238.098  1.087312E-14
4239.336  1.151422E-14
4240.574  1.105400E-14
4241.812  1.075648E-14
4243.05  1.130558E-14
4244.288  1.200475E-14
4245.526  1.202871E-14
4246.764  1.185327E-14
4248.002  1.176287E-14
4249.24  1.141418E-14
4250.478  1.164594E-14
4251.716  1.182016E-14
4252.954  1.195399E-14
4254.192  1.224792E-14
4255.43  1.213937E-14
4256.668  1.251650E-14
4257.906  1.243806E-14
4259.144  1.202856E-14
4260.382  1.163989E-14
4261.62  1.161194E-14
4262.858  1.180313E-14
4264.096  1.189172E-14
4265.334  1.193390E-14
4266.572  1.191059E-14
4267.81  1.179713E-14
4269.048  1.178556E-14
4270.286  1.171974E-14
4271.524  1.197284E-14
4272.762  1.206360E-14
4274.  1.223169E-14
4275.238  1.209264E-14
4276.476  1.209665E-14
4277.714  1.247707E-14
4278.952  1.200791E-14
4280.19  1.249612E-14
4281.428  1.268989E-14
4282.666  1.203105E-14
4283.904  1.187922E-14
4285.142  1.214434E-14
4286.38  1.256743E-14
4287.618  1.241169E-14
4288.856  1.234799E-14
4290.094  1.234697E-14
4291.332  1.244108E-14
4292.57  1.228983E-14
4293.808  1.198763E-14
4295.046  1.211558E-14
4296.284  1.249888E-14
4297.522  1.231719E-14
4298.76  1.188823E-14
4299.998  1.190416E-14
4301.236  1.263966E-14
4302.474  1.306199E-14
4303.712  1.286493E-14
4304.95  1.275636E-14
4306.188  1.268046E-14
4307.426  1.291478E-14
4308.664  1.270479E-14
4309.902  1.267612E-14
4311.14  1.259594E-14
4312.378  1.261685E-14
4313.616  1.239899E-14
4314.854  1.185184E-14
4316.092  1.204984E-14
4317.33  1.251163E-14
4318.568  1.240885E-14
4319.806  1.211384E-14
4321.044  1.243601E-14
4322.282  1.290156E-14
4323.52  1.293207E-14
4324.758  1.280462E-14
4325.996  1.313609E-14
4327.234  1.318394E-14
4328.472  1.284793E-14
4329.71  1.299555E-14
4330.948  1.363272E-14
4332.186  1.377642E-14
4333.424  1.304721E-14
4334.662  1.278109E-14
4335.9  1.302013E-14
4337.138  1.331282E-14
4338.376  1.320643E-14
4339.614  1.309968E-14
4340.852  1.301897E-14
4342.09  1.285218E-14
4343.328  1.311539E-14
4344.566  1.343606E-14
4345.804  1.251247E-14
4347.042  1.225393E-14
4348.28  1.279412E-14
4349.518  1.290259E-14
4350.756  1.274957E-14
4351.994  1.272674E-14
4353.232  1.252754E-14
4354.47  1.276979E-14
4355.708  1.267907E-14
4356.946  1.217553E-14
4358.184  1.195715E-14
4359.422  1.201240E-14
4360.66  1.230624E-14
4361.898  1.196764E-14
4363.136  1.203088E-14
4364.374  1.232042E-14
4365.612  1.191799E-14
4366.85  1.152775E-14
4368.088  1.114815E-14
4369.326  1.113711E-14
4370.564  1.162744E-14
4371.802  1.208927E-14
4373.04  1.214078E-14
4374.278  1.222386E-14
4375.516  1.198434E-14
4376.754  1.162967E-14
4377.992  1.182778E-14
4379.23  1.150761E-14
4380.468  1.110249E-14
4381.706  1.079012E-14
4382.944  1.087676E-14
4384.182  1.081730E-14
4385.42  1.072415E-14
4386.658  1.079047E-14
4387.896  1.041744E-14
4389.134  9.761906E-15
4390.372  9.709398E-15
4391.61  9.961218E-15
4392.848  9.940004E-15
4394.086  9.975343E-15
4395.324  9.935168E-15
4396.562  9.837236E-15
4397.8  9.812071E-15
4399.038  9.968823E-15
4400.276  1.002664E-14
4401.514  9.741227E-15
4402.752  9.526148E-15
4403.99  9.739304E-15
4405.228  9.960284E-15
4406.466  9.872161E-15
4407.704  1.004717E-14
4408.942  9.912838E-15
4410.18  9.395225E-15
4411.418  9.369980E-15
4412.656  9.404033E-15
4413.894  9.536584E-15
4415.132  9.757742E-15
4416.37  9.295760E-15
4417.608  8.973145E-15
4418.846  9.035089E-15
4420.084  9.402042E-15
4421.322  9.712247E-15
4422.56  9.751797E-15
4423.798  9.784883E-15
4425.036  9.790746E-15
4426.274  9.606218E-15
4427.512  9.714811E-15
4428.75  9.324865E-15
4429.988  9.073059E-15
4431.226  9.102945E-15
4432.464  9.392215E-15
4433.702  9.930890E-15
4434.94  9.801191E-15
4436.178  9.693946E-15
4437.416  1.010209E-14
4438.654  1.014561E-14
4439.892  9.742829E-15
4441.13  9.729498E-15
4442.368  9.875484E-15
4443.606  9.932640E-15
4444.844  9.844706E-15
4446.082  9.966526E-15
4447.32  9.869051E-15
4448.558  9.514741E-15
4449.796  9.722554E-15
4451.034  9.822374E-15
4452.272  9.588260E-15
4453.51  9.919912E-15
4454.748  1.029608E-14
4455.986  9.836135E-15
4457.224  1.005245E-14
4458.462  1.035866E-14
4459.7  1.003007E-14
4460.938  1.005059E-14
4462.176  9.830599E-15
4463.414  9.847434E-15
4464.652  1.007720E-14
4465.89  9.846948E-15
4467.128  9.598880E-15
4468.366  9.334070E-15
4469.604  9.538629E-15
4470.842  1.003098E-14
4472.08  1.007816E-14
4473.318  9.661681E-15
4474.556  9.743851E-15
4475.794  9.818438E-15
4477.032  9.731463E-15
4478.27  9.839437E-15
4479.508  9.916745E-15
4480.746  9.954041E-15
4481.984  9.818462E-15
4483.222  9.733155E-15
4484.46  1.018866E-14
4485.698  1.047299E-14
4486.936  1.047374E-14
