#wavelength spec_sum
3644.6 26070.6
3647.51 23818.5
3650.42 18008
3653.33 20614.4
3656.24 11729.3
3659.15 14909.1
3662.06 22651.1
3664.97 19331.8
3667.88 16183
3670.79 14872.9
3673.7 17588.1
3676.61 17992.8
3679.52 22679.4
3682.43 15431.7
3685.34 14656.9
3688.25 18973.7
3691.16 13985.8
3694.07 14115.2
3696.98 15949
3699.89 18673.7
3702.8 13365.3
3705.71 11234.4
3708.62 14253.4
3711.53 16201.8
3714.44 15243
3717.35 11082.6
3720.26 13660.3
3723.17 11864.8
3726.08 8387.38
3728.99 10871.6
3731.9 9337.67
3734.81 13700.7
3737.71 11390.6
3740.62 10863.6
3743.53 11227
3746.44 5787.56
3749.35 11560.5
3752.26 6748.26
3755.17 7597.22
3758.08 6747.14
3760.99 6062.9
3763.9 8933.49
3766.81 9114.21
3769.72 7326.93
3772.63 5768.14
3775.54 5732.82
3778.45 3553.18
3781.36 5940.03
3784.27 7235.02
3787.18 2808.17
3790.09 7241.27
3793 1577.42
3795.91 6722.65
3798.81 8289.44
3801.72 8879.55
3804.63 6243.8
3807.54 7135.04
3810.45 7447.86
3813.36 6606.97
3816.27 5145.03
3819.18 6895.83
3822.09 6369.34
3825 9294.79
3827.91 8404.21
3830.82 9272.64
3833.73 5452.06
3836.64 6560.87
3839.55 5828.91
3842.45 8024.63
3845.36 7821.25
3848.27 8499.55
3851.18 6549.76
3854.09 6404.37
3857 7955.78
3859.91 11054.2
3862.82 8068.25
3865.73 10962.6
3868.64 7052.7
3871.55 8958.62
3874.46 9260.48
3877.36 10800.8
3880.27 10015.5
3883.18 10735.7
3886.09 12009.3
3889 12922.4
3891.91 9723.73
3894.82 13578.5
3897.73 11470.8
3900.64 11218.4
3903.55 12146.9
3906.45 12401.2
3909.36 11835.8
3912.27 12715.6
3915.18 13891.4
3918.09 13846.4
3921 14101.6
3923.91 13171.7
3926.82 12081.3
3929.73 11403
3932.63 12924
3935.54 15394.7
3938.45 15612.5
3941.36 12804.2
3944.27 15721.3
3947.18 16316.3
3950.09 13478.5
3952.99 13894.1
3955.9 14641.9
3958.81 13625.6
3961.72 16093.1
3964.63 15784.4
3967.54 15804.6
3970.45 16556.1
3973.36 15080.7
3976.26 13252
3979.17 13708
3982.08 13757.2
3984.99 13049.5
3987.9 14800.9
3990.81 13512.3
3993.71 12533.8
3996.62 14249.2
3999.53 16649.7
4002.44 16347.2
4005.35 16399.6
4008.26 15930.9
4011.16 17319.8
4014.07 17221.4
4016.98 16652.1
4019.89 18037.6
4022.8 17042.4
4025.71 17010.2
4028.61 17982.8
4031.52 20436
4034.43 20607.2
4037.34 16916.3
4040.25 18240.1
4043.15 18193.7
4046.06 17453.8
4048.97 18149.3
4051.88 17421.8
4054.79 20266.7
4057.69 19256.2
4060.6 18029.6
4063.51 18654.5
4066.42 19018.2
4069.33 17950.3
4072.23 19919.9
4075.14 18706.4
4078.05 19897
4080.96 19892
4083.87 19539.5
4086.77 19661.3
4089.68 19295.3
4092.59 18941.4
4095.5 20479.5
4098.4 20470.7
4101.31 18206.5
4104.22 17636.6
4107.13 18599.8
4110.04 18454.7
4112.94 16723
4115.85 17455.9
4118.76 15739.7
4121.67 17036.4
4124.57 17221.3
4127.48 14968.3
4130.39 16702.8
4133.3 14801.1
4136.2 16562.1
4139.11 18110.7
4142.02 16026.8
4144.92 16067.4
4147.83 15670.1
4150.74 14272.5
4153.65 14666.5
4156.55 15343.9
4159.46 15597.8
4162.37 15234.4
4165.28 15604.6
4168.18 16730.8
4171.09 15541
4174 15328.5
4176.9 16281.1
4179.81 14892.4
4182.72 16802.7
4185.62 17556.2
4188.53 15408.8
4191.44 17303.5
4194.35 18229.8
4197.25 16607.6
4200.16 19112.4
4203.07 17331.7
4205.97 18867.1
4208.88 17688.2
4211.79 17759
4214.69 17295.3
4217.6 17329.6
4220.51 18221.3
4223.41 17743.6
4226.32 17078.1
4229.23 18079.7
4232.13 17819.2
4235.04 18182
4237.95 17334.2
4240.85 18490.2
4243.76 18225
4246.67 18199.2
4249.57 18131.2
4252.48 17500.8
4255.38 16697
4258.29 17456.9
4261.2 16555.9
4264.1 17053.8
4267.01 16353.4
4269.92 16962.5
4272.82 15705.1
4275.73 17151.9
4278.63 16948.4
4281.54 16008.5
4284.45 15746.7
4287.35 15972.4
4290.26 15928.7
4293.16 15371.3
4296.07 14636.7
4298.98 14640.9
4301.88 16725.9
4304.79 15719.7
4307.69 14682
4310.6 15897.8
4313.51 17052.2
4316.41 15482.3
4319.32 15539.9
4322.22 15008.5
4325.13 15689.9
4328.03 16110.3
4330.94 16024.4
4333.85 15130.1
4336.75 13551.7
4339.66 14615.6
4342.56 14061.7
4345.47 14443.1
4348.37 15199.7
4351.28 13265.4
4354.18 12703.1
4357.09 13023.7
4359.99 13580.3
4362.9 11471.1
4365.8 13436
4368.71 13180.2
4371.61 12411.1
4374.52 13291.6
4377.42 11815.8
4380.33 13560.5
4383.23 12063.1
4386.14 11471
4389.04 12235.5
4391.95 11713.8
4394.85 13647.7
4397.76 11985.1
4400.66 12445.3
4403.57 11739.4
4406.47 11463.8
4409.38 12165.6
4412.28 10700.5
4415.19 11831.1
4418.09 11440.6
4421 11959.3
4423.9 10085.9
4426.81 11828.7
4429.71 10484.9
4432.61 11080.4
4435.52 11559.2
4438.42 10549
4441.33 10585
4444.23 10265.9
4447.14 10468.7
4450.04 10801.5
4452.94 10083.2
4455.85 10194.6
4458.75 10252.9
4461.66 10199.7
4464.56 9353.55
4467.47 9752.52
4470.37 10116
4473.27 9076.51
4476.18 10377.4
4479.08 9400.09
4481.98 10876.7
4484.89 10595.9
4487.79 10362.9
4490.7 10433
4493.6 9961.54
4496.5 10279.5
4499.41 10726.5
4502.31 10993.2
4505.21 11345.2
4508.12 11039.5
4511.02 11564.2
4513.92 11109.2
4516.83 10717.9
4519.73 11410.5
4522.63 11509.7
4525.54 12204
4528.44 11582.9
4531.34 11728.9
4534.25 11523.1
4537.15 11450
4540.05 10976.1
4542.96 11261.3
4545.86 10435.5
4548.76 11828.7
4551.66 11977.5
4554.57 10756.7
4557.47 10720.8
4560.37 10098.8
4563.28 10850
4566.18 10198.6
4569.08 10159.3
4571.98 10824.1
4574.89 9672.02
4577.79 9930.16
4580.69 9976.9
4583.59 12295.8
4586.5 10383.1
4589.4 10431.4
4592.3 10073.3
4595.2 11419.2
4598.11 10852.1
4601.01 11642.6
4603.91 10107.7
4606.81 11081
4609.71 10645.7
4612.62 11647.6
4615.52 11469.6
4618.42 10517.6
4621.32 11977.6
4624.22 11178.7
4627.13 11173.8
4630.03 10953.4
4632.93 11615.1
4635.83 11777.7
4638.73 12511.3
4641.63 10919.9
4644.54 11751.3
4647.44 11931.5
4650.34 12479.2
4653.24 11558.5
4656.14 10149.3
4659.04 12433.3
4661.94 12801.2
4664.85 12549.4
4667.75 11380.9
4670.65 11807.4
4673.55 12152
4676.45 11061.5
4679.35 11932.1
4682.25 12299.8
4685.15 11417.5
4688.05 12218.5
4690.95 11400
4693.86 10980.7
4696.76 11511.3
4699.66 11511.9
4702.56 11298
4705.46 11573.9
4708.36 12067.8
4711.26 11059.1
4714.16 11043.3
4717.06 10962.5
4719.96 11037.9
4722.86 11325.2
4725.76 11070.3
4728.66 10575.2
4731.56 10863
4734.46 11011.9
4737.36 11202.5
4740.26 11344.3
4743.16 10497.3
4746.06 11533.2
4748.96 9797.36
4751.86 10599.4
4754.76 11079
4757.66 10498.5
4760.56 10788.3
4763.46 11121.2
4766.36 10160.9
4769.26 9998.32
4772.16 10684.5
4775.06 11122.9
4777.96 11442.9
4780.86 10714
4783.76 11018.6
4786.66 11103.5
4789.55 10256.3
4792.45 9834.58
4795.35 10381.2
4798.25 9664.13
4801.15 9892.19
4804.05 9978.23
4806.95 9480.78
4809.85 8300.92
4812.75 9293.96
4815.65 8153.8
4818.54 9349.78
4821.44 9576.4
4824.34 9098.76
4827.24 8170.44
4830.14 9491.33
4833.04 9131.56
4835.93 8049.16
4838.83 9149.15
4841.73 9211.18
4844.63 8625.54
4847.53 8549.57
4850.43 8653.96
4853.32 8509.28
4856.22 8487.85
4859.12 8876.25
4862.02 8965.27
4864.92 9441.36
4867.81 9273.29
4870.71 9600.89
4873.61 9788.46
4876.51 9109.03
4879.4 9624.58
4882.3 9044.84
4885.2 9029.06
4888.1 8020.82
4890.99 8781.75
4893.89 7875.46
4896.79 8477.97
4899.69 9513.25
4902.58 8562.26
4905.48 8559.04
4908.38 8189.92
4911.27 8354.16
4914.17 7495.14
4917.07 9013.34
4919.96 8448.56
4922.86 7834.78
4925.76 8535.43
4928.65 8309
4931.55 7771.93
4934.45 8935
4937.34 8182.23
4940.24 8491.43
4943.14 8311.18
4946.03 8418.93
4948.93 8167.52
4951.83 7949.87
4954.72 8156.48
4957.62 8334.4
4960.51 8500.63
4963.41 8537.8
4966.31 8579.28
4969.2 7707.34
4972.1 7671.22
4974.99 7908.11
4977.89 8260.71
4980.78 7298.84
4983.68 7630.5
4986.58 7811.88
4989.47 7647.8
4992.37 7354.04
4995.26 7355.61
4998.16 7306.37
5001.05 7723.74
5003.95 7117.21
5006.84 6586.17
5009.74 6504.37
5012.63 6527.37
5015.53 5979.98
5018.42 6173.48
5021.32 6236.59
5024.21 6388.69
5027.11 6350.21
5030 5920.51
5032.9 5716.57
5035.79 6353.48
5038.68 5853.2
5041.58 5974.95
5044.47 5997.15
5047.37 6578.72
5050.26 5860.11
5053.16 5683.07
5056.05 6050.6
5058.94 6149.93
5061.84 5884.14
5064.73 6125.88
5067.62 6840.15
5070.52 6671.64
5073.41 6417.81
5076.31 6661.89
5079.2 6740.54
5082.09 7386.32
5084.99 7157.94
5087.88 6240.21
5090.77 6280
5093.67 5868.26
5096.56 6727.95
5099.45 6816.21
5102.35 7287.9
5105.24 6939.78
5108.13 7633.61
5111.02 6592.96
5113.92 6742.08
5116.81 7328.12
5119.7 7093.26
5122.59 7473.3
5125.49 7110.02
5128.38 7277.39
5131.27 7201.28
5134.16 6921.43
5137.06 6913.55
5139.95 7256.31
5142.84 7242.65
5145.73 7174.83
5148.62 7381.73
5151.52 7511.27
5154.41 6546.81
5157.3 7034.16
5160.19 7024.68
5163.08 7351.29
5165.98 7732.29
5168.87 7007.64
5171.76 7351.41
5174.65 7216.97
5177.54 7756.51
5180.43 7465.8
5183.32 7472.24
5186.21 7465.21
5189.11 7797.14
5192 7260.13
5194.89 6986.83
5197.78 7389.71
5200.67 7945.94
5203.56 7340.59
5206.45 7612.99
5209.34 7370.56
5212.23 7767.21
5215.12 7633.23
5218.01 7416.16
5220.9 7238.82
5223.79 7073.14
5226.68 8329.31
5229.57 7504.42
5232.46 7770.09
5235.35 7791.57
5238.24 8266.15
5241.13 7658.6
5244.02 8158.12
5246.91 7923.25
5249.8 7587.28
5252.69 7547.95
5255.58 7978.17
5258.47 8416.93
5261.36 8329.75
5264.25 8155.14
5267.14 8728.21
5270.03 8003.57
5272.91 8132.73
5275.8 8160.39
5278.69 8508.93
5281.58 8386.97
5284.47 8424.93
5287.36 7651.68
5290.25 8517.47
5293.13 8315.23
5296.02 7637.32
5298.91 8498.19
5301.8 8615.75
5304.69 7975.2
5307.58 7217.92
5310.46 7273.04
5313.35 7832.94
5316.24 7581.45
5319.13 8040.18
5322.02 7345.99
5324.9 7473.96
5327.79 7652.07
5330.68 7823.89
5333.57 7643.8
5336.45 7381.13
5339.34 7974.15
5342.23 7729.96
5345.11 7280.04
5348 7398.4
5350.89 6996.58
5353.77 7535.61
5356.66 7480.03
5359.55 7674.41
5362.43 8119.35
5365.32 7527.63
5368.21 7815.06
5371.09 7672.87
5373.98 7259.17
5376.87 7922.63
5379.75 7523.87
5382.64 7335.71
5385.53 7950.49
5388.41 7640.09
5391.3 7778.15
5394.18 7964.29
5397.07 7997.04
5399.95 7829.93
5402.84 7244.09
5405.72 7559.24
5408.61 7647.35
5411.5 7213.91
5414.38 7235.79
5417.27 7055.93
5420.15 6851.39
5423.04 6607.13
5425.92 6761.71
5428.81 6614.69
5431.69 6512.03
5434.58 6013.5
5437.46 5910.28
5440.34 6708.31
5443.23 6097.94
5446.11 5706.24
5449 5662.64
5451.88 6055.27
5454.77 6002.28
5457.65 5588.5
5460.53 6075.68
5463.42 5951.31
5466.3 5678.32
5469.18 6291.29
5472.07 5916.53
5474.95 6448.91
5477.84 5988.12
5480.72 6373.75
5483.6 6074.38
5486.48 6373.82
5489.37 6089.52
5492.25 6555.24
5495.13 5840.78
5498.02 6357.21
5500.9 6346.82
5503.78 6393.95
5506.66 5954.32
5509.55 5932.95
5512.43 6129.46
5515.31 6018.71
5518.19 6524.04
5521.08 5686.73
5523.96 6266.65
5526.84 6131.04
5529.72 6415.94
5532.6 6249.5
5535.49 6039.94
5538.37 5682.46
5541.25 6345.16
5544.13 6482.95
5547.01 5998.19
5549.89 5580.8
5552.77 6155.26
5555.66 6174.99
5558.54 6744.94
5561.42 6251.39
5564.3 6396.37
5567.18 5196.85
5570.06 6209.01
5572.94 7035.84
5575.82 8578.83
5578.7 5849.68
5581.58 5693.4
5584.46 5907.58
5587.34 6182.24
5590.22 5935.44
5593.1 5814.32
5595.98 6031.41
5598.86 5319.71
5601.74 5759.11
5604.62 5937.51
5607.5 5611.95
5610.38 6508.26
5613.26 5836.84
5616.14 5359.17
5619.02 5581.74
5621.9 5813.66
5624.78 4924.23
5627.65 5485.5
5630.53 5313.6
5633.41 5027.57
5636.29 5264.17
5639.17 5816.68
5642.05 5617.9
5644.93 4961.38
5647.8 5227.62
5650.68 5349.66
5653.56 5218.21
5656.44 5399.4
5659.32 5393.38
5662.19 5455.13
5665.07 5612.62
5667.95 6063.55
5670.83 5635.9
5673.7 5617.03
5676.58 5540.32
5679.46 6026.04
5682.34 6164.75
5685.21 6088.63
5688.09 5595.13
5690.97 5770.3
5693.84 5654.01
5696.72 6501.89
5699.6 6200.07
5702.47 5861.41
5705.35 5849.21
5708.23 6152.35
5711.1 6258.65
5713.98 6195.92
5716.85 6634.09
5719.73 6367.79
5722.61 6743.1
5725.48 6336.54
5728.36 5885.59
5731.23 6142.65
5734.11 6009.43
5736.98 6671.59
5739.86 6681.74
5742.73 6051.05
5745.61 6379.12
5748.48 6262.41
5751.36 6733.41
5754.23 6830.71
5757.11 6757.31
5759.98 6200.8
5762.86 6221.83
5765.73 6797.58
5768.6 6703.66
5771.48 6813.76
5774.35 5873.62
5777.23 6209.14
5780.1 6302.33
5782.97 6335.82
5785.85 6585.7
5788.72 6405.91
5791.59 6338.69
5794.47 6576.98
5797.34 6711.95
5800.21 6407.81
5803.09 6141.33
5805.96 6344.12
5808.83 6579.34
5811.71 6957.63
5814.58 6709.43
5817.45 6596.58
5820.32 6484.67
5823.2 7077.62
5826.07 6987.81
5828.94 6055.82
5831.81 6918.76
5834.68 6890.5
5837.56 6117.62
5840.43 7195.34
5843.3 7544.82
5846.17 6811.87
5849.04 6611.15
5851.91 6872.95
5854.78 6592.59
5857.66 6702.41
5860.53 6612.99
5863.4 6966.23
5866.27 6594.04
5869.14 6885.68
5872.01 6205.2
5874.88 6414.41
5877.75 7351.67
5880.62 6990.59
5883.49 6820.65
5886.36 6042.38
5889.23 7150.11
5892.1 6706.83
5894.97 6419.38
5897.84 6190.32
5900.71 6629.98
5903.58 6692.63
5906.45 6667.68
5909.32 6824.23
5912.19 6836.43
5915.05 6714.31
5917.92 6666.38
5920.79 6306.66
5923.66 6329.41
5926.53 5534.93
5929.4 6603.12
5932.27 6244.72
5935.13 6231.73
5938 5926.45
5940.87 6398.28
5943.74 6065.3
5946.61 5628.94
5949.47 5940.49
5952.34 5549.49
5955.21 6135.24
5958.08 5708.83
5960.94 5644
5963.81 5911.66
5966.68 5719.5
5969.54 5798.52
5972.41 5559.48
5975.28 5540.73
5978.14 5532.11
5981.01 5520.33
5983.88 5750.72
5986.74 5739.36
5989.61 5597.47
5992.48 5941.45
5995.34 6000.88
5998.21 5947.22
6001.07 5611.98
6003.94 5735.8
6006.8 6020.85
6009.67 6038.48
6012.53 5436.75
6015.4 5857.76
6018.27 5993.43
6021.13 5465.53
6023.99 6145.99
6026.86 5779.47
6029.72 5989.06
6032.59 5487.16
6035.45 6151.96
6038.32 5821.92
6041.18 6187.3
6044.04 5653.47
6046.91 5770.74
6049.77 5976.5
6052.64 6145.68
6055.5 5690.19
6058.36 5443.29
6061.23 6171.63
6064.09 6044.96
6066.95 5666.39
6069.82 5702.74
6072.68 6357.48
6075.54 6039.65
6078.4 5918.56
6081.27 5708.38
6084.13 6022.79
6086.99 5679.82
6089.85 5863.14
6092.71 6147.05
6095.58 6120.69
6098.44 5526.66
6101.3 5630.57
6104.16 5707.93
6107.02 5539.98
6109.88 5929.36
6112.75 6007.32
6115.61 6279.88
6118.47 5432.69
6121.33 5287.53
6124.19 5931.32
6127.05 5487.74
6129.91 5550.94
6132.77 5272.63
6135.63 5588.95
6138.49 5504.02
6141.35 5524.92
6144.21 5334.27
6147.07 5106.54
6149.93 5628.03
6152.79 5526.97
6155.65 5600.57
6158.51 5302.85
6161.37 5607.75
6164.23 5146.63
6167.09 5253.98
6169.94 5519.23
6172.8 5447.65
6175.66 5343.05
6178.52 5207.46
6181.38 4930.6
6184.24 5379.12
6187.09 5225.49
6189.95 5126.37
6192.81 5360.4
6195.67 5474.93
6198.53 4864.46
6201.38 5119.21
6204.24 5008.39
6207.1 4653.45
6209.95 5259.34
6212.81 4806.56
6215.67 5200.1
6218.52 5417.77
6221.38 4829.43
6224.24 4862.49
6227.09 4966.28
6229.95 4791.26
6232.81 4466.94
6235.66 5048.07
6238.52 4636.79
6241.37 4722.83
6244.23 4739.51
6247.08 4662.11
6249.94 4583.09
6252.79 4637.2
6255.65 4592.37
6258.5 4825.76
6261.36 4171.23
6264.21 4302.68
6267.07 4384.19
6269.92 4199.09
6272.78 4145.39
6275.63 4673.68
6278.49 4076.61
6281.34 3761.63
6284.19 3680.28
6287.05 3494.43
6289.9 3658.06
6292.75 3812.58
6295.61 3763.87
6298.46 3525.31
6301.31 3906.13
6304.17 4470.35
6307.02 3598.53
6309.87 3838.12
6312.72 2624.33
6315.58 3107.43
6318.43 2889.47
6321.28 3780.17
6324.13 3580.02
6326.98 3436
6329.84 3539.84
6332.69 3767.06
6335.54 3109.32
6338.39 3820.28
6341.24 3420.72
6344.09 3182.82
6346.94 3482.02
6349.79 3467.19
6352.64 3540.5
6355.5 3302.94
6358.35 3541.18
6361.2 3736.27
6364.05 3974.52
6366.9 3201.36
6369.75 3437.1
6372.6 3882.83
6375.44 3511.78
6378.29 3749.45
6381.14 3583.71
6383.99 3686
6386.84 3757.82
6389.69 4003.88
6392.54 4099.54
6395.39 4100.11
6398.24 3555.12
6401.08 3735.95
6403.93 4252.32
6406.78 4230.13
6409.63 3878.82
6412.48 4561.94
6415.32 4424.4
6418.17 4537.07
6421.02 4098.61
6423.87 4665.33
6426.71 4662.18
6429.56 4789.3
6432.41 4691.66
6435.25 4431.19
6438.1 5002.64
6440.95 4290.19
6443.79 4906.89
6446.64 4631.69
6449.49 4762.15
6452.33 4910.67
6455.18 4901.48
6458.02 4870.98
6460.87 5072.69
6463.71 5240.51
6466.56 5278.31
6469.4 4944.81
6472.25 4990.15
6475.09 4747.98
6477.94 4825.29
6480.78 5077.29
6483.63 5268.3
6486.47 5379.8
6489.31 4829.12
6492.16 5213.96
6495 5045.07
6497.85 4927.61
6500.69 5891.15
6503.53 5814.83
6506.38 5448.95
6509.22 5748.45
6512.06 4924.78
6514.9 4623.47
6517.75 5366.09
6520.59 5398.88
6523.43 5446.62
6526.27 5265.17
6529.12 5522.25
6531.96 5341.08
6534.8 4759.12
6537.64 4831.01
6540.48 5118.64
6543.32 5765.17
6546.16 5535.5
6549.01 5305.79
6551.85 5009.61
6554.69 4887.63
6557.53 5229.94
6560.37 5350.85
6563.21 5479.63
6566.05 5615.06
6568.89 5534.76
6571.73 4790.84
6574.57 4969.2
6577.41 5022.37
6580.25 4853.89
6583.09 4904.32
6585.93 5146.85
6588.76 5717.3
6591.6 5140.59
6594.44 5098.04
6597.28 5545.21
6600.12 5746.18
6602.96 5601.89
6605.79 5403.65
6608.63 5292.46
6611.47 5407.11
6614.31 5229.04
6617.15 5115.81
6619.98 5255.28
6622.82 5440.92
6625.66 5165.34
6628.49 5885.82
6631.33 5198.83
6634.17 5420.38
6637 5366.19
6639.84 4889.31
6642.68 5746.18
6645.51 5294.65
6648.35 5014.66
6651.18 4895.32
6654.02 5287.69
6656.85 5102.45
6659.69 5228.36
6662.52 4912.54
6665.36 4844.74
6668.19 5176.6
6671.03 4901.52
6673.86 4683.21
6676.7 5503.64
6679.53 4642.78
6682.37 5023.41
6685.2 4616.42
6688.03 4790.15
6690.87 5546.25
6693.7 4773.7
6696.53 4680.67
6699.37 5170.83
6702.2 5261.33
6705.03 5167.02
6707.86 5293.89
6710.7 5038.51
6713.53 5328.63
6716.36 4912.93
6719.19 4988.53
6722.02 5196.38
6724.86 5175.66
6727.69 4783.95
6730.52 4624.96
6733.35 4877.09
6736.18 4711.13
6739.01 4685.63
6741.84 5032.56
6744.67 4732.92
6747.5 5093.07
6750.33 5197.28
6753.16 5170.08
6755.99 4696.16
6758.82 4767.97
6761.65 5161.21
6764.48 5309.49
6767.31 4393.53
6770.14 5155.89
6772.97 4695.52
6775.8 4860.81
6778.63 4390.49
6781.46 4942.82
6784.28 4523.68
6787.11 4740.68
6789.94 4611.9
6792.77 4415.73
6795.59 5068.27
6798.42 4669.53
6801.25 4692.79
6804.08 4123.67
6806.9 4588.34
6809.73 4640.78
6812.56 4601.1
6815.38 4656.96
6818.21 4519.67
6821.04 4383.1
6823.86 4704.28
6826.69 4378.74
6829.51 4607.32
6832.34 4546.21
6835.16 4679.93
6837.99 4083.41
6840.82 4589.92
6843.64 4571.28
6846.46 5053.17
6849.29 4626.09
6852.11 4271.16
6854.94 4655.66
6857.76 4509.21
6860.59 4026.98
6863.41 4186.55
6866.23 3898.2
6869.06 3446.88
6871.88 3307.28
6874.7 4202.29
6877.53 3962.15
6880.35 4091.69
6883.17 4137.86
6885.99 4231.47
6888.82 4021.78
6891.64 4111.43
6894.46 4129.36
6897.28 4132.96
6900.1 3901.11
6902.92 4135.45
6905.74 4173.11
6908.57 4247.8
6911.39 4398.75
6914.21 4558.33
6917.03 4701.13
6919.85 4340.91
6922.67 4147.16
6925.49 4089.56
6928.31 3930.66
6931.13 4230.49
6933.95 3978.66
6936.77 4278.24
6939.59 4396.49
6942.4 4075.15
6945.22 3952.73
6948.04 4107.72
6950.86 4006.3
6953.68 4039.43
6956.5 4089.62
6959.31 4276.33
6962.13 4136.45
6964.95 4498.03
6967.77 4245.25
6970.58 4181.37
6973.4 4441.05
6976.22 4424.37
6979.04 4177.85
6981.85 4487.67
6984.67 4229.1
6987.48 4041.22
6990.3 4510.96
6993.12 4117.89
6995.93 4172.55
6998.75 4664.75
7001.56 3764.97
7004.38 3958.17
7007.19 3826.2
7010.01 4023.64
7012.82 4172.11
7015.64 4212.38
7018.45 4666.3
7021.27 3443.32
7024.08 4276.5
7026.89 3603.03
7029.71 4140.99
7032.52 3940.73
7035.33 4295.84
7038.15 3930.33
7040.96 4139.8
7043.77 4007.67
7046.58 4000.5
7049.4 3606.81
7052.21 3998.65
7055.02 3732.2
7057.83 3592.28
7060.64 4119.52
7063.45 3912.91
7066.27 4084.69
7069.08 4046.54
7071.89 4121.09
7074.7 3829.07
7077.51 4009.51
7080.32 3726.49
7083.13 3991.26
7085.94 3781.17
7088.75 3667.07
7091.56 4027.72
7094.37 3566.84
7097.18 3869.65
7099.99 3529.44
7102.8 3584.27
7105.6 4255.61
7108.41 3993.96
7111.22 3450.37
7114.03 4248.83
7116.84 3768.13
7119.64 4357.17
7122.45 4368.97
7125.26 4006.8
7128.07 3704.58
7130.87 3765.26
7133.68 3935.75
7136.49 4112.85
7139.29 3979.55
7142.1 4106.89
7144.91 4175.56
7147.71 3515.16
7150.52 4083.11
7153.32 4124.71
7156.13 3959.65
7158.93 3651.27
7161.74 3541.08
7164.54 3943.49
7167.35 3463.84
7170.15 3897.71
7172.96 3810.32
7175.76 3221.14
7178.56 3916.01
7181.37 3577.23
7184.17 3560.55
7186.97 3419.72
7189.78 3137.06
7192.58 3340.69
7195.38 3238.02
7198.19 3187.48
7200.99 3366.8
7203.79 3564.05
7206.59 3891.8
7209.39 3982.91
7212.2 3855.96
7215 3545.07
7217.8 3920.46
7220.6 3888.07
7223.4 4284.7
7226.2 4159.7
7229 3664.38
7231.8 3567.59
7234.6 3876.56
7237.4 3309.72
7240.2 4116.22
7243 3588.77
7245.8 4024.95
7248.6 3211.32
7251.4 3746.47
7254.2 3322.77
7256.99 4002.54
7259.79 4276.79
7262.59 4072.03
7265.39 3552.34
7268.19 3543.64
7270.98 3999.9
7273.78 3951.09
7276.58 4410.92
7279.38 3848.83
7282.17 3887.41
7284.97 3674.77
7287.76 3537.92
