wavelength spec_sum spec_optimal
3813.87 -3.30714 -1.72528
3816.76 6.21852 10.1991
3819.65 4.14976 7.6205
3822.53 5.65473 5.24193
3825.42 2.03188 3.0055
3828.31 5.0699 7.97195
3831.2 2.74958 4.77066
3834.09 2.53411 1.15337
3836.98 2.61217 4.16133
3839.87 7.14347 9.56753
3842.75 3.19969 3.12757
3845.64 2.88694 3.74565
3848.53 -2.2423 -3.54666
3851.42 2.36844 1.85934
3854.31 4.08815 3.92007
3857.2 3.151 1.63797
3860.09 3.38849 4.46283
3862.98 3.72697 3.71021
3865.87 3.7054 1.94488
3868.76 1.23796 2.68305
3871.64 3.32203 1.57038
3874.53 6.57984 7.77817
3877.42 0.165647 -1.71438
3880.31 1.33305 2.11373
3883.2 2.85508 5.47231
3886.09 1.57457 2.75618
3888.98 2.98936 1.50795
3891.87 0.330518 1.79963
3894.76 1.95336 1.65328
3897.65 3.09859 4.61309
3900.54 5.02181 5.47601
3903.43 3.11048 5.30936
3906.32 3.09509 3.17879
3909.21 2.56384 3.30775
3912.1 2.49274 3.72995
3914.99 -0.903081 -0.566324
3917.88 4.06194 5.6658
3920.77 2.25772 3.35268
3923.66 2.60641 2.68105
3926.55 -0.0528947 0.99541
3929.44 0.739766 1.01113
3932.33 0.0747991 2.30661
3935.22 0.0109213 -1.4329
3938.11 -1.33973 -3.00907
3941 2.66198 4.48696
3943.89 3.78003 6.19288
3946.78 5.00581 6.17646
3949.67 6.99716 8.46396
3952.56 4.88031 6.66043
3955.45 5.16995 8.00873
3958.34 3.08678 2.33253
3961.23 5.0651 3.45868
3964.13 9.05783 7.9155
3967.02 7.75341 7.51728
3969.91 4.99417 5.11817
3972.8 6.13181 6.0614
3975.69 4.76798 7.16792
3978.58 7.63957 8.7368
3981.47 4.57813 6.18688
3984.36 7.02475 7.32696
3987.25 4.31145 7.8545
3990.14 6.38582 5.56497
3993.03 5.69651 6.13797
3995.93 4.50624 4.75463
3998.82 6.87428 9.36108
4001.71 3.24643 4.56644
4004.6 7.12538 9.5759
4007.49 6.77845 6.66973
4010.38 4.62418 3.2035
4013.27 4.49295 5.18679
4016.16 5.42762 5.0714
4019.06 4.75807 5.33642
4021.95 6.89407 8.72823
4024.84 4.35411 4.98064
4027.73 5.10269 4.99819
4030.62 7.17367 5.80731
4033.51 6.69955 9.20904
4036.4 9.60116 9.36307
4039.3 4.91761 7.6183
4042.19 7.58707 6.98242
4045.08 8.07559 8.53292
4047.97 8.62395 5.30072
4050.86 11.194 8.09758
4053.75 8.82986 7.43301
4056.65 11.7163 12.4636
4059.54 10.5587 9.97011
4062.43 11.3146 9.62303
4065.32 9.70324 8.90329
4068.21 8.7651 8.34747
4071.11 11.1554 11.2632
4074 10.0579 10.0669
4076.89 7.94308 9.77764
4079.78 10.1313 10.9054
4082.67 8.40789 6.19886
4085.57 7.85481 9.4472
4088.46 5.66852 7.32415
4091.35 7.16574 8.3574
4094.24 4.63926 4.9219
4097.14 7.69677 5.91279
4100.03 6.26974 5.76782
4102.92 6.68697 6.92724
4105.81 5.17691 5.12215
4108.71 7.55846 8.12982
4111.6 6.33762 7.16585
4114.49 9.09567 8.79132
4117.38 6.84358 8.44462
4120.28 6.87683 6.02502
4123.17 5.36454 2.82295
4126.06 7.99896 6.25905
4128.95 6.46809 5.55933
4131.85 4.98182 4.48601
4134.74 6.21152 5.20958
4137.63 6.44 7.86173
4140.52 5.21294 5.32929
4143.42 8.04369 7.36066
4146.31 5.85789 6.09254
4149.2 6.66528 6.6777
4152.09 6.06566 5.43673
4154.99 7.08517 4.28959
4157.88 9.17762 6.29773
4160.77 8.04346 8.26105
4163.67 7.82257 9.15781
4166.56 7.77431 7.64908
4169.45 7.89723 8.8616
4172.34 6.35262 6.27258
4175.24 5.93921 5.87123
4178.13 7.49358 6.98198
4181.02 4.29889 5.14595
4183.92 5.12254 3.95379
4186.81 1.45374 2.20872
4189.7 0.761665 1.08496
4192.6 0.519972 1.09083
4195.49 2.19195 2.2103
4198.38 3.12133 3.79774
4201.28 4.2306 4.49258
4204.17 7.16772 6.27326
4207.06 4.3982 2.089
4209.96 5.42217 2.41957
4212.85 4.75563 3.18032
4215.74 1.57869 1.31287
4218.64 5.41687 5.3715
4221.53 5.21403 7.33134
4224.42 5.54639 5.76034
4227.32 5.9372 6.13016
4230.21 3.58621 4.43613
4233.1 4.86392 5.86055
4236 3.40705 3.26139
4238.89 5.87275 5.12996
4241.78 6.68922 7.02789
4244.68 4.44015 3.08812
4247.57 3.93867 2.91735
4250.46 5.35148 4.55781
4253.36 4.10061 1.31634
4256.25 3.58282 3.21429
4259.14 5.34443 5.42547
4262.04 5.04116 7.24243
4264.93 4.05729 5.37369
4267.82 3.76024 3.10033
4270.72 4.78697 5.75
4273.61 4.50761 5.66138
4276.51 3.68605 4.47594
4279.4 4.24774 5.52584
4282.29 3.52002 3.24553
4285.19 5.49488 4.60179
4288.08 4.72899 6.22685
4290.97 4.81563 4.71975
4293.87 1.78479 2.10304
4296.76 2.04971 1.55221
4299.66 4.95219 4.1972
4302.55 4.53221 4.87664
4305.44 4.14052 3.98029
4308.34 5.04777 4.34195
4311.23 4.30382 4.30405
4314.13 5.26068 3.78849
4317.02 7.07122 5.91417
4319.91 5.3567 4.64433
4322.81 6.45594 5.74861
4325.7 5.08718 5.21961
4328.59 6.11287 5.12799
4331.49 7.54127 5.01732
4334.38 5.76628 4.85275
4337.28 5.24118 3.39066
4340.17 5.01378 4.2612
4343.06 3.41768 3.0558
4345.96 4.55075 5.16836
4348.85 4.33971 4.48867
4351.75 6.22076 6.27201
4354.64 4.74395 4.76217
4357.54 4.81267 5.0773
4360.43 3.68401 5.01227
4363.32 4.33743 5.76984
4366.22 4.15492 5.39631
4369.11 4.55297 4.29918
4372.01 3.07695 2.90751
4374.9 5.05684 5.57383
4377.79 4.25573 4.66247
4380.69 4.08436 4.22408
4383.58 6.96624 8.04396
4386.48 3.77757 5.36513
4389.37 5.08301 5.97277
4392.26 3.39019 3.80205
4395.16 2.63227 2.88164
4398.05 3.6475 3.04697
4400.95 2.93187 2.80752
4403.84 5.72117 5.39133
4406.74 3.51121 2.74551
4409.63 6.38773 6.07609
4412.52 3.03172 4.09934
4415.42 3.4383 4.31816
4418.31 3.49945 5.58093
4421.21 3.82782 4.87052
4424.1 4.19334 4.13924
4427 3.46286 3.18882
4429.89 6.17963 6.08834
4432.78 3.7659 4.11752
4435.68 5.22726 6.23701
4438.57 3.28713 4.65856
4441.47 2.40663 1.92111
4444.36 2.70463 4.8222
4447.26 3.83939 4.06971
4450.15 4.21156 4.25792
4453.04 3.76875 3.04726
4455.94 6.89487 7.43921
4458.83 4.62156 5.46799
4461.73 3.82481 4.51916
4464.62 5.22314 6.98011
4467.52 5.01463 5.29995
4470.41 4.04584 2.87317
4473.3 3.79999 5.10458
4476.2 4.9421 5.76623
4479.09 5.66078 6.49846
4481.99 3.28381 4.93077
4484.88 4.24564 4.39197
4487.78 3.80246 5.48877
4490.67 3.18029 3.85129
4493.56 3.87864 4.09441
4496.46 3.8868 3.92569
4499.35 2.16668 2.34372
4502.25 6.31986 7.82673
4505.14 3.36771 4.90818
4508.04 4.90841 5.16119
4510.93 3.57847 5.04065
4513.82 4.26536 4.51659
4516.72 3.44039 3.93801
4519.61 3.53741 3.67215
4522.51 2.82719 4.44621
4525.4 3.28953 4.26098
4528.3 4.03745 4.42764
4531.19 4.43707 5.63154
4534.08 5.31036 5.77075
4536.98 4.77517 5.99108
4539.87 5.77466 5.32313
4542.77 5.71204 6.37487
4545.66 6.13502 5.65598
4548.56 6.09594 6.46243
4551.45 7.2513 7.87966
4554.34 6.31252 5.98497
4557.24 6.95253 7.45567
4560.13 5.67035 6.13589
4563.03 6.72097 7.43569
4565.92 7.14754 7.21438
4568.82 7.9182 7.30972
4571.71 1.96331 2.14087
4574.6 1.87929 0.767795
4577.5 2.47859 2.71865
4580.39 4.83144 5.73793
4583.29 7.73965 8.72024
4586.18 6.32765 6.36947
4589.07 7.58796 7.56563
4591.97 6.673 7.20911
4594.86 7.5276 7.56799
4597.76 7.34697 8.09847
4600.65 8.60926 8.26001
4603.55 5.76462 6.37555
4606.44 9.11714 9.30582
4609.33 9.84805 9.61323
4612.23 9.15521 10.4404
4615.12 8.12264 8.36335
4618.02 8.20807 7.62569
4620.91 10.1751 11.9554
4623.8 8.52115 9.23376
4626.7 10.6544 10.192
4629.59 9.97324 10.7228
4632.49 9.23814 9.43161
4635.38 10.3614 10.7502
4638.28 9.6339 9.94816
4641.17 10.7301 10.9652
4644.06 9.97622 10.8717
4646.96 10.3182 10.6243
4649.85 10.3408 10.9422
4652.75 12.1581 12.0511
4655.64 10.4512 10.5673
4658.53 10.6767 12.0484
4661.43 9.36093 9.80921
4664.32 11.577 11.7137
4667.21 12.6393 13.3342
4670.11 11.1043 11.87
4673 12.4674 12.6674
4675.9 10.6958 10.5872
4678.79 13.514 14.8531
4681.68 12.9764 13.4001
4684.58 12.2343 12.2454
4687.47 11.8982 12.1367
4690.37 11.0892 11.736
4693.26 12.1358 11.9956
4696.15 13.5122 13.2718
4699.05 12.2275 12.3734
4701.94 12.0822 13.2173
4704.84 11.536 12.7985
4707.73 12.3559 12.8797
4710.62 10.7086 11.4171
4713.52 10.2963 11.0824
4716.41 12.1086 13.0746
4719.3 12.6545 12.9138
4722.2 11.7076 10.6773
4725.09 11.8519 12.124
4727.98 10.8053 11.2511
4730.88 12.5413 12.9558
4733.77 11.5709 11.7825
4736.67 11.7174 12.0574
4739.56 12.0072 12.384
4742.45 11.1679 11.4082
4745.35 10.2683 9.52699
4748.24 10.5595 10.8587
4751.13 10.408 10.6412
4754.03 8.91445 8.12527
4756.92 11.6867 11.7383
4759.81 8.87009 8.84446
4762.71 11.6892 11.8062
4765.6 12.0536 11.9665
4768.49 10.3235 11.2572
4771.39 10.3304 10.088
4774.28 10.9622 11.0786
4777.17 11.0368 11.3379
4780.07 9.50658 9.5688
4782.96 9.40328 10.3136
4785.85 10.0851 9.95267
4788.75 9.55815 10.0273
4791.64 8.8152 8.17722
4794.53 8.52328 8.8325
4797.43 8.67945 9.51514
4800.32 6.81617 7.02065
4803.21 8.75781 8.4764
4806.11 8.70308 8.65554
4809 7.25008 7.30778
4811.89 8.59908 8.57655
4814.78 8.82147 8.71855
4817.68 8.1886 8.07895
4820.57 9.04264 9.56095
4823.46 8.46453 8.35561
4826.36 7.07228 7.244
4829.25 8.00067 8.18095
4832.14 9.94517 9.61515
4835.04 8.45214 8.07632
4837.93 8.42998 8.51221
4840.82 7.33081 7.50065
4843.71 7.76565 7.81118
4846.61 8.21207 8.21392
4849.5 8.93164 9.9935
4852.39 7.88765 7.83296
4855.28 8.80275 8.91422
4858.18 8.38127 8.92868
4861.07 9.19254 9.49034
4863.96 8.09311 8.65781
4866.86 8.22225 9.0509
4869.75 9.79085 9.39275
4872.64 7.56564 6.95499
4875.53 9.47166 10.469
4878.43 9.53331 8.60952
4881.32 9.52988 9.45075
4884.21 8.72009 8.3857
4887.1 7.70528 8.96535
4890 8.06713 8.84552
4892.89 7.48624 7.61706
4895.78 9.38509 8.87827
4898.67 9.71861 8.83451
4901.56 8.95217 9.37802
4904.46 8.06064 8.71612
4907.35 8.9161 9.21647
4910.24 7.92657 9.28663
4913.13 7.2986 8.04721
4916.03 9.99972 9.34728
4918.92 9.66638 8.89325
4921.81 8.7289 9.25846
4924.7 8.55482 9.21609
4927.59 9.74775 9.49306
4930.49 9.58121 10.5957
4933.38 10.1887 10.4601
4936.27 9.39578 9.80506
4939.16 9.19921 8.92204
4942.05 10.1624 10.0147
4944.94 9.1586 8.9392
4947.84 9.85927 10.9753
4950.73 10.9234 10.5599
4953.62 9.20802 9.50324
4956.51 9.12012 8.8782
4959.4 9.9003 9.78064
4962.3 9.45505 9.63748
4965.19 9.60964 9.00732
4968.08 8.27108 7.21016
4970.97 8.24102 8.4525
4973.86 7.48814 7.34128
4976.75 7.00384 7.33446
4979.64 7.36561 8.44016
4982.54 7.34137 7.8809
4985.43 8.78306 8.54996
4988.32 6.71475 7.19575
4991.21 6.67406 7.60163
4994.1 6.33235 7.46663
4996.99 5.85476 5.99949
4999.88 7.20049 6.88255
5002.77 6.95899 7.14291
5005.67 6.51955 7.55656
5008.56 6.44714 6.63954
5011.45 7.45672 7.36638
5014.34 5.4846 5.97729
5017.23 6.30206 7.18756
5020.12 7.325 7.79157
5023.01 7.90032 7.52008
5025.9 7.26274 7.60893
5028.79 6.20673 5.69676
5031.68 7.26866 7.58738
5034.57 6.58093 7.24136
5037.46 6.30419 6.02537
5040.36 7.46061 7.70522
5043.25 8.6772 8.89451
5046.14 6.57338 6.98545
5049.03 7.89337 8.08285
5051.92 7.66067 7.72181
5054.81 7.89986 7.83163
5057.7 7.86382 7.94638
5060.59 8.05099 6.61926
5063.48 7.75861 7.34488
5066.37 7.76917 6.95668
5069.26 8.33805 7.4528
5072.15 6.8399 6.13784
5075.04 7.50965 7.13858
5077.93 7.20176 6.77779
5080.82 7.689 7.85793
5083.71 7.90999 7.27066
5086.6 7.65801 6.96188
5089.49 5.20763 5.52919
5092.38 6.63657 6.67126
5095.27 7.27124 7.23845
5098.16 7.8764 8.15367
5101.05 6.82716 5.88825
5103.94 5.26428 4.91227
5106.83 7.17303 6.66252
5109.72 7.8244 7.39991
5112.61 7.18596 6.61823
5115.5 7.17491 6.44821
5118.39 4.61848 5.11233
5121.28 6.20061 6.46419
5124.17 6.55855 5.5322
5127.06 5.35805 4.61127
5129.94 6.42959 6.03579
5132.83 6.37526 5.65662
5135.72 7.73897 7.50682
5138.61 7.08484 7.20084
5141.5 7.0736 6.3557
5144.39 6.72639 6.78327
5147.28 6.48154 5.99126
5150.17 6.90799 6.95375
5153.06 6.16435 5.56894
5155.95 6.67054 5.32366
5158.84 8.05071 7.68189
5161.72 7.19946 6.68691
5164.61 6.28899 6.00156
5167.5 7.4938 7.65368
5170.39 6.87408 6.46153
5173.28 6.36874 5.90904
5176.17 6.30905 5.55702
5179.06 7.21488 6.70135
5181.95 7.79615 8.07862
5184.83 8.19994 7.91475
5187.72 8.02233 7.65641
5190.61 7.96347 7.40221
5193.5 7.11084 6.94976
5196.39 8.51953 7.83983
5199.28 8.29418 7.78867
5202.16 5.77304 5.83219
5205.05 7.70894 7.62998
5207.94 7.46769 6.3687
5210.83 7.58435 7.24279
5213.72 9.63964 8.63374
5216.6 7.66714 7.88976
5219.49 8.65595 8.26705
5222.38 7.53006 6.85948
5225.27 7.85152 7.83905
5228.15 8.69862 8.36128
5231.04 7.90303 6.86156
5233.93 8.27751 8.10116
5236.82 7.23435 7.79208
5239.7 8.98412 8.44762
5242.59 9.48285 8.81213
5245.48 9.11321 8.34913
5248.37 7.68567 7.39855
5251.25 9.3838 8.87942
5254.14 9.48211 9.26629
5257.03 8.84489 9.01319
5259.92 10.275 9.51137
5262.8 9.67269 9.15616
5265.69 7.95811 8.45438
5268.58 8.89714 8.10601
5271.46 9.22023 9.14042
5274.35 10.1547 10.0804
5277.24 9.50125 9.57693
5280.12 8.98428 9.01954
5283.01 8.01021 8.54183
5285.9 8.75069 7.97713
5288.78 8.94661 8.7323
5291.67 9.21806 8.42531
5294.56 10.0579 9.1514
5297.44 9.32736 9.11665
5300.33 8.48367 8.44636
5303.22 9.1975 9.28431
5306.1 10.4027 10.0081
5308.99 8.56695 8.64553
5311.87 9.22369 8.891
5314.76 8.56749 7.72574
5317.65 9.51023 8.90833
5320.53 8.98345 8.58883
5323.42 9.71952 9.74644
5326.3 5.93595 8.76291
5329.19 6.5445 8.753
5332.08 6.42921 8.93601
5334.96 6.83184 7.67429
5337.85 7.92657 9.62955
5340.73 7.66824 9.82813
5343.62 7.48573 9.79985
5346.5 7.0756 8.14786
5349.39 6.84657 9.43792
5352.27 7.88267 10.2763
5355.16 7.28891 9.53163
5358.04 6.46847 9.44003
5360.93 7.79645 9.5616
5363.82 8.6152 10.3235
5366.7 6.8927 8.77879
5369.59 7.56149 9.97334
5372.47 7.06853 10.309
5375.35 6.47802 8.89342
5378.24 6.97057 9.36866
5381.12 7.86177 10.0886
5384.01 8.33133 11.0102
5386.89 7.61912 10.1053
5389.78 6.97062 9.70587
5392.66 7.79705 10.3
5395.55 6.83609 9.55502
5398.43 6.74168 8.6448
5401.32 6.74247 8.64895
5404.2 7.04594 8.93247
5407.08 7.49089 9.63322
5409.97 5.98443 7.23768
5412.85 5.67081 8.09662
5415.74 6.05761 8.62181
5418.62 7.73607 9.972
5421.5 6.9418 8.7619
5424.39 5.91959 8.94034
5427.27 6.12304 8.75316
5430.15 6.00783 8.41052
5433.04 6.05302 8.93146
5435.92 6.93719 9.46323
5438.8 6.36006 9.06302
5441.69 4.98589 7.54617
5444.57 5.40687 6.94042
5447.45 6.57965 9.29435
5450.34 5.1062 6.84217
5453.22 5.19594 8.68201
5456.1 6.59622 8.19552
5458.99 5.52873 7.23099
5461.87 5.89808 8.90317
5464.75 5.09923 7.69043
5467.64 5.61928 7.72247
5470.52 5.65125 8.4537
5473.4 6.3367 8.39411
5476.28 5.03525 7.90493
5479.17 6.14714 8.45408
5482.05 5.0429 6.63445
5484.93 6.64935 8.56879
5487.81 6.26786 8.4495
5490.7 5.88559 7.20732
5493.58 6.17307 8.98804
5496.46 5.51921 7.49555
5499.34 6.19593 8.88638
5502.22 5.59872 8.7946
5505.11 6.04309 7.9401
5507.99 6.5224 8.47019
5510.87 5.97354 9.25761
5513.75 5.14479 8.52307
5516.63 6.01299 8.66862
5519.51 6.58969 8.43763
5522.39 7.48582 8.91297
5525.28 6.41356 8.00792
5528.16 6.50326 8.80816
5531.04 6.57816 9.40807
5533.92 6.80082 9.48054
5536.8 6.22621 8.69982
5539.68 5.15861 7.91763
5542.56 5.38112 7.44246
5545.44 7.22157 9.29913
5548.32 5.77892 8.38821
5551.21 6.83546 9.37581
5554.09 4.55969 6.54717
5556.97 6.36483 8.70306
5559.85 6.43829 8.08003
5562.73 6.27266 8.17951
5565.61 5.93795 8.85117
5568.49 6.18426 8.73485
5571.37 5.69018 10.0264
5574.25 6.31745 7.48148
5577.13 8.96028 8.79562
5580.01 6.14954 7.72066
5582.89 6.27806 8.23618
5585.77 5.38937 8.55915
5588.65 5.89272 7.7643
5591.53 3.97022 6.44092
5594.41 4.49887 6.52376
5597.29 5.10872 8.18697
5600.17 4.77133 7.88499
5603.05 4.46243 6.42655
5605.92 5.67793 7.21935
5608.8 5.28633 6.26257
5611.68 4.99566 6.19259
5614.56 4.56808 6.89018
5617.44 4.59582 6.22361
5620.32 5.80918 7.72929
5623.2 4.54728 6.83865
5626.08 6.16487 8.45999
5628.96 5.29469 6.41776
5631.83 4.55028 6.63117
5634.71 4.98693 6.94056
5637.59 5.68809 7.04553
5640.47 6.16345 8.3099
5643.35 5.20294 6.69785
5646.23 5.28818 7.93957
5649.1 5.40786 6.96997
5651.98 5.12493 6.90207
5654.86 4.46265 6.48361
5657.74 5.04113 7.08453
5660.62 5.98136 7.97258
5663.49 5.03941 7.06645
5666.37 4.56738 6.61095
5669.25 5.59553 8.04885
5672.13 5.46912 7.65009
5675 5.03735 7.48344
5677.88 6.51238 8.41717
5680.76 4.68191 7.04702
5683.64 6.35453 8.00185
5686.51 5.87012 7.65881
5689.39 6.04368 8.55585
5692.27 6.58265 9.29475
5695.14 6.18525 8.7595
5698.02 5.52705 8.23951
5700.9 6.64286 8.99061
5703.77 6.11245 8.05757
5706.65 5.83593 7.93218
5709.53 5.9855 7.76184
5712.4 7.71067 9.34959
5715.28 5.809 7.96544
5718.16 6.57082 8.34744
5721.03 7.30877 9.6465
5723.91 6.87604 9.75897
5726.78 5.70446 8.13936
5729.66 6.54818 8.50416
5732.53 6.56722 9.03657
5735.41 7.42758 8.82691
5738.29 6.71482 8.78171
5741.16 6.59772 8.82825
5744.04 6.51651 8.73539
5746.91 6.75669 8.8963
5749.79 5.1142 8.23408
5752.66 6.09305 8.19306
5755.54 6.04366 8.45484
5758.41 5.34159 7.88359
5761.29 6.12634 8.02288
5764.16 4.92965 7.94306
5767.04 7.00067 8.89182
5769.91 6.04058 7.81428
5772.79 6.06467 7.24472
5775.66 5.38576 7.15959
5778.53 6.1743 8.15197
5781.41 5.55585 6.96023
5784.28 5.65382 7.36934
5787.16 5.45508 7.62166
5790.03 5.77022 7.24903
5792.91 5.82178 7.77148
5795.78 5.02106 7.34895
5798.65 6.10743 8.01129
5801.53 5.23947 7.72857
5804.4 5.64309 7.41346
5807.27 5.21135 7.7843
5810.15 5.30737 7.57661
5813.02 6.82126 8.45632
5815.89 6.62557 8.0246
5818.77 5.58078 7.31446
5821.64 5.34825 6.80341
5824.51 5.91323 7.14844
5827.38 6.62376 7.47008
5830.26 5.1225 6.52285
5833.13 5.31528 7.0633
5836 5.25743 6.71026
5838.88 6.14784 7.68595
5841.75 5.59573 6.96341
5844.62 5.30488 6.89305
5847.49 5.39951 7.46756
5850.36 5.29181 6.39438
5853.24 5.71809 6.9364
5856.11 4.74062 6.80657
5858.98 4.6752 6.95083
5861.85 4.73848 7.11059
5864.72 4.95018 7.04333
5867.59 5.84046 7.35077
5870.47 4.7915 6.92125
5873.34 4.94298 6.57867
5876.21 5.72894 7.57782
5879.08 4.39829 6.28582
5881.95 5.05407 6.86117
5884.82 4.65894 6.69667
5887.69 4.3216 5.54257
5890.56 4.20737 6.22675
5893.43 4.31341 6.20054
5896.3 4.36093 4.88793
5899.18 4.37623 6.00087
5902.05 4.66038 5.89495
5904.92 4.29017 5.66658
5907.79 3.93313 4.89599
5910.66 3.79442 5.32723
5913.53 4.0527 5.46446
5916.4 3.7343 4.32239
5919.27 4.77773 6.1121
5922.14 2.68867 3.77437
5925.01 4.53643 5.68137
5927.88 4.63825 6.04371
5930.74 3.8582 5.099
5933.61 3.77343 5.06419
5936.48 3.78333 4.71831
5939.35 4.04622 5.34271
5942.22 4.16489 5.28191
5945.09 4.86095 6.13215
5947.96 3.448 4.91364
5950.83 4.98566 6.16796
5953.7 3.36883 4.98959
5956.56 3.59573 4.75603
5959.43 4.48948 4.88285
5962.3 4.23803 5.3558
5965.17 4.05649 5.04034
5968.04 4.35193 5.64561
5970.91 4.05981 5.24309
5973.77 3.33428 4.54055
5976.64 4.01552 5.09158
5979.51 4.93153 5.18672
5982.38 3.84724 5.86061
5985.24 5.07926 6.14086
5988.11 4.75643 5.87647
5990.98 4.88694 6.00083
5993.85 3.65986 4.75601
5996.71 5.31759 5.77826
5999.58 5.31685 5.58506
6002.45 4.76195 5.67892
6005.31 4.67019 6.17333
6008.18 4.09395 5.15107
6011.05 4.88974 5.66566
6013.91 5.50811 6.53376
6016.78 4.76145 5.68676
6019.65 5.23705 6.68581
6022.51 4.31828 5.55653
6025.38 4.98676 6.2363
6028.25 5.44775 6.72087
6031.11 5.3244 6.35033
6033.98 4.44875 5.2749
6036.84 4.02835 5.5832
6039.71 4.69218 5.71823
6042.57 3.9175 4.78766
6045.44 4.48432 5.61044
6048.3 4.61747 5.20666
6051.17 4.8541 6.09281
6054.04 4.78846 5.39462
6056.9 6.15965 6.86808
6059.76 5.40062 6.40842
6062.63 4.65069 5.8344
6065.49 4.95476 5.57243
6068.36 3.69824 4.41854
6071.22 5.03652 5.86705
6074.09 4.12546 5.06446
6076.95 4.63302 5.51635
6079.82 4.80555 5.52631
6082.68 4.96613 5.84007
6085.54 4.22936 5.24498
6088.41 4.41473 5.64169
6091.27 3.31807 4.48579
6094.13 4.19067 5.21761
6097 3.89527 4.76104
6099.86 4.91295 5.34732
6102.72 4.86225 5.12505
6105.59 4.46048 5.05939
6108.45 4.76266 5.63476
6111.31 4.38467 5.14555
6114.18 4.03962 4.69598
6117.04 4.22248 4.7831
6119.9 4.18027 4.82699
6122.76 4.56213 5.21643
6125.63 4.3112 4.71001
6128.49 3.74085 4.6219
6131.35 4.68384 5.37122
6134.21 4.01722 4.33063
6137.08 4.08509 4.97107
6139.94 3.78364 4.30847
6142.8 3.74895 4.32799
6145.66 3.65295 3.83111
6148.52 4.29936 4.72833
6151.38 3.70512 4.42816
6154.24 4.27273 4.59453
6157.11 3.41245 4.84136
6159.97 4.24737 5.22451
6162.83 3.95625 4.61644
6165.69 4.51477 4.81395
6168.55 4.03038 4.5053
6171.41 3.74688 4.29646
6174.27 3.56238 4.31023
6177.13 3.47198 4.62017
6179.99 4.40599 4.80346
6182.85 3.30115 4.04329
6185.71 4.05207 4.77672
6188.57 3.94542 4.54931
6191.43 3.49923 4.34678
6194.29 3.42202 4.32174
6197.15 2.98338 3.67594
6200.01 3.67612 3.88874
6202.87 3.34806 3.7284
6205.73 3.4212 3.8365
6208.59 2.87523 3.71713
6211.45 4.16266 4.50104
6214.3 3.41647 4.12057
6217.16 3.23542 3.75182
6220.02 3.3126 3.58484
6222.88 2.23156 3.14823
6225.74 3.072 3.59591
6228.6 2.85161 3.55961
6231.46 2.62057 3.06873
6234.31 2.00869 2.67676
6237.17 2.92237 3.63304
6240.03 1.77721 2.5052
